File: database/DUT-49/DUT-49-SKDM017_SCD5dEtOH+act150°C22h_N277K_run1.DAT.aif
data_data_raw2aif
_exptl_operator Simon
_exptl_date 2016-04-19T00:00:00
_exptl_instrument 'BEL 00218'
_exptl_adsorptive N2
_exptl_temperature 77.40
_exptl_sample_mass 0.01700
_sample_id 'SKDM017_SCD5dEtOH+act150Â°C22h_N277K_run1'
_sample_material_id DUT-49
_units_temperature K
_units_pressure kPa
_units_mass g
_units_loading cm3(STP)/g

loop_
_adsorp_pressure
_adsorp_p0
_adsorp_loading
0.69822 102370.0 0.916972
3.4157 102430.0 2.02342
8.8798 102390.0 3.12443
14.163 102330.0 4.20554
19.242 102250.0 5.27483
24.403 102300.0 6.33622
29.888 102260.0 7.38601
36.268 102200.0 8.42375
44.07 102150.0 9.43874
53.578 102090.0 10.427
66.135 102110.0 11.4201
81.779 101990.0 12.3525
103.48 101970.0 13.2868
134.65 101950.0 14.2206
187.67 101940.0 15.2788
255.25 101930.0 16.1671
356.47 101950.0 17.0898
463.79 102010.0 17.8143
562.65 102000.0 18.3894
671.11 102010.0 19.0037
749.9 102040.0 19.416
875.3 102100.0 20.0361
963.68 102110.0 20.3779
1058.5 102120.0 20.7357
1334.5 102140.0 21.7355
1578.7 102110.0 22.5761
1875.9 102130.0 23.5482
2075.4 102150.0 24.1831
2401.1 102180.0 25.1736
2551.7 102160.0 25.6384
2901.8 102180.0 26.6735
3064.7 102220.0 27.1509
3435.2 102190.0 28.1752
3602.1 102230.0 28.6192
3976.6 102230.0 29.6141
4074.3 102240.0 29.8666
4497.7 102290.0 30.9021
4595.4 102290.0 31.1479
5027.0 102300.0 32.1852
5499.2 102320.0 33.2962
5617.3 102260.0 33.5567
6065.1 102220.0 34.5958
6553.7 102260.0 35.7005
7054.4 102280.0 36.8466
7559.2 102230.0 38.0173
8076.3 102260.0 39.2647
8434.5 102280.0 40.2012
8564.8 102300.0 40.5764
8894.6 102320.0 41.5825
9110.3 102280.0 42.3427
9464.5 102330.0 43.832
15303.0 102320.0 41.1573
16043.0 102340.0 42.7385
17757.0 102340.0 43.1413
18698.0 102280.0 43.3426
19716.0 102340.0 43.5451
20766.0 102350.0 43.7561
22008.0 102230.0 44.8693
23078.0 102180.0 45.2797
25639.0 102310.0 45.6233
28277.0 102320.0 45.9891
30801.0 102390.0 46.413
33134.0 102390.0 47.0643
34771.0 102350.0 48.434
35304.0 102410.0 49.4735
35894.0 102420.0 51.9274
36330.0 102410.0 54.0733
36717.0 102430.0 55.9561
37047.0 102390.0 57.6292
37344.0 102440.0 59.0747
37616.0 102460.0 60.3507
37897.0 102450.0 61.4437
38594.0 102480.0 63.8529
39172.0 102480.0 66.1149
40312.0 102480.0 68.8632
41728.0 102410.0 71.1475
43019.0 102400.0 72.5127
46418.0 102350.0 74.8148
50673.0 102350.0 76.2514
54365.0 102370.0 76.9474
57471.0 102350.0 77.3133
62678.0 102350.0 77.6836
67995.0 102350.0 77.9424
73296.0 102270.0 78.1744
78503.0 102220.0 78.3885
83677.0 102260.0 78.6071
88913.0 102290.0 78.8436
94091.0 102400.0 79.1559
96941.0 102330.0 79.3968

loop_
_desorp_pressure
_desorp_p0
_desorp_loading
92500.0 102250.0 79.147
85172.0 102220.0 78.7231
75295.0 102280.0 78.2636
65374 102290.0 77.8174
55542.0 102280.0 77.3133
45763.0 102300.0 76.6664
40336.0 102320.0 76.2247
35377.0 102350.0 75.7651
30586.0 102240.0 75.2164
25818.0 102320.0 74.5382
20115.0 102400.0 73.3782
18376.0 102370.0 72.0309
16890.0 102310.0 69.1711
15445.0 102300.0 67.7345
14317.0 102330.0 64.5623
13861.0 102370.0 61.814
12599.0 102280.0 59.2308
12290.0 102330.0 58.6508
11577.0 102330.0 55.211
11195.0 102330.0 52.2887
10926.0 102310.0 49.7278
10759.0 102300.0 47.3945
10641.0 102340.0 45.2708
10568.0 102370.0 43.2654
10507.0 102350.0 41.3541
10442.0 102390.0 39.4704
10405.0 102340.0 36.4268
10332.0 102370.0 33.3765
10169.0 102260.0 29.6632
8231.0 102280.0 28.5741
6920.1 102380.0 28.343
5824.9 102340.0 28.1556
4831.6 102280.0 27.9575
3891.1 102290.0 27.7237
2629.1 102390.0 27.27
1757.9 102420.0 26.7989
918.45 102230.0 25.9325
731.41 102280.0 25.6032
487.68 102330.0 24.9719
300.68 102230.0 23.9533
233.75 102250.0 22.0728
114.86 102380.0 20.2646
97.83 102360.0 19.9772
68.329 102020.0 19.2995
49.352 102070.0 18.5835