File: database/DUT-49/DUT-49-SKDM019_SCDEtOH_Act.150°C_Ar_87K.DAT.aif
data_data_raw2aif
_exptl_operator Simon
_exptl_date 2017-06-02T00:00:00
_exptl_instrument 'BEL 00218'
_exptl_adsorptive Ar
_exptl_temperature 87.00
_exptl_sample_mass 0.01040
_sample_id 'SKDM019_SCDEtOH_Act.150ï¿½C_Ar_87K'
_sample_material_id DUT-49
_units_temperature K
_units_pressure kPa
_units_mass g
_units_loading cm3(STP)/g

loop_
_adsorp_pressure
_adsorp_p0
_adsorp_loading
6.8747 101000.0 0.130923
104.81 101000.0 1.77902
210.62 101000.0 4.43923
269.6 101000.0 6.96752
351.91 101000.0 9.32899
490.23 101000.0 11.4085
678.88 101000.0 13.1168
988.08 101000.0 14.8273
1290.0 101000.0 15.9557
1969.6 101000.0 17.5547
2490.5 101000.0 18.4992
3520.1 101000.0 20.1388
3695.1 101000.0 20.3917
4163.1 101000.0 21.0971
4887.5 101000.0 22.1701
5774.7 101000.0 23.5518
5913.1 101000.0 23.7731
6877.6 101000.0 25.3324
7699.7 101000.0 26.7346
7834.0 101000.0 26.9827
8656.0 101000.0 28.4514
8737.4 101000.0 28.5808
9315.3 101000.0 29.6667
9583.9 101000.0 30.1963
9718.2 101000.0 30.4363
10268.0 101000.0 31.5392
10544.0 101000.0 32.0782
10666.0 101000.0 32.3534
11220.0 101000.0 33.4715
11488.0 101000.0 34.0261
11623.0 101000.0 34.2995
12168.0 101000.0 35.4631
12437.0 101000.0 36.0641
12608.0 101000.0 36.475
13120.0 101000.0 37.6702
17845.0 101000.0 31.4143
18403.0 101000.0 31.4486
19457.0 101000.0 31.524
20425.0 101000.0 31.6057
21406.0 101000.0 31.6494
22399.0 101000.0 31.7177
23229.0 101000.0 31.7623
24316.0 101000.0 31.8515
25175.0 101000.0 31.8845
26131.0 101000.0 31.9452
27096.0 101000.0 32.001
28076.0 101000.0 32.0563
29045.0 101000.0 32.0951
30026.0 101000.0 32.1313
31674.0 101000.0 32.2517
32732.0 101000.0 32.2937
33729.0 101000.0 32.3664
34685.0 101000.0 32.4561
35650.0 101000.0 32.5288
36586.0 101000.0 32.6876
37481.0 101000.0 32.9638
38312.0 101000.0 33.4586
38983.0 101000.0 34.3981
39720.0 101000.0 39.2465
40151.0 101000.0 45.3913
40501.0 101000.0 50.4238
40814.0 101000.0 54.805
41246.0 101000.0 60.4533
41689.0 101000.0 65.0308
42357.0 101000.0 70.389
42878.0 101000.0 73.5879
43850.0 101000.0 77.9736
44957.0 101000.0 81.0386
45942.0 101000.0 83.0062
46719.0 101000.0 84.0278
47708.0 101000.0 85.0495
48799.0 101000.0 85.8481
49910.0 101000.0 86.4415
51009.0 101000.0 86.8029
52055.0 101000.0 87.1375
53076.0 101000.0 87.3829
54077.0 101000.0 87.5569
55066.0 101000.0 87.6818
56059.0 101000.0 87.8157
57044.0 101000.0 87.9138
58021.0 101000.0 87.9986
58998.0 101000.0 88.0744
59966.0 101000.0 88.1726
60951.0 101000.0 88.235
62786.0 101000.0 88.3778
63869.0 101000.0 88.4447
65704.0 101000.0 88.5964
66775.0 101000.0 88.6678
68639.0 101000.0 88.8106
69680.0 101000.0 88.9087
71569.0 101000.0 89.0158
72610.0 101000.0 89.0827
74478.0 101000.0 89.1675
75528.0 101000.0 89.2746
77396.0 101000.0 89.3772
79346.0 101000.0 89.4843
81279.0 101000.0 89.627
83212.0 101000.0 89.743
85153.0 101000.0 89.8902
87102.0 101000.0 90.0241
89040.0 101000.0 90.1713
90977.0 101000.0 90.3409
92910.0 101000.0 90.5327
94798.0 101000.0 90.7602
96707.0 101000.0 91.135

loop_
_desorp_pressure
_desorp_p0
_desorp_loading
95006.0 101000.0 91.0056
93117.0 101000.0 90.7825
91197.0 101000.0 90.555
89259.0 101000.0 90.3364
87318.0 101000.0 90.1133
85377.0 101000.0 90.0062
83436.0 101000.0 89.859
81495.0 101000.0 89.7073
79566.0 101000.0 89.5467
77624.0 101000.0 89.4263
75699.0 101000.0 89.3459
73778.0 101000.0 89.1809
71858.0 101000.0 88.9979
69920.0 101000.0 88.9266
68000.0 101000.0 88.757
66071.0 101000.0 88.6678
65000.0 101000.0 88.6232
63173.0 101000.0 88.4849
62119.0 101000.0 88.4135
60279.0 101000.0 88.2707
59217.0 101000.0 88.186
57390.0 101000.0 88.0655
56336.0 101000.0 87.9852
54509.0 101000.0 87.8424
53438.0 101000.0 87.771
51619.0 101000.0 87.5792
50549.0 101000.0 87.5123
49568.0 101000.0 87.4453
47773.0 101000.0 87.2803
46386.0 101000.0 87.1509
44786.0 101000.0 86.9992
43179.0 101000.0 86.843
41571.0 101000.0 86.6735
40004.0 101000.0 86.4817
38942.0 101000.0 86.3523
37978.0 101000.0 86.2407
37017.0 101000.0 86.1158
36053.0 101000.0 85.9775
35088.0 101000.0 85.8571
34136.0 101000.0 85.7232
33188.0 101000.0 85.5358
32276 101000.0 85.286
31458.0 101000.0 84.8175
30746.0 101000.0 83.9609
28353.0 101000.0 78.9016
27783.0 101000.0 77.6077
27352.0 101000.0 76.6887
26721.0 101000.0 75.5376
26286.0 101000.0 74.8327
26168.0 101000.0 74.6185
25443.0 101000.0 73.6816
24463.0 101000.0 72.5529
23396.0 101000.0 71.6516
23217.0 101000.0 71.5178
22330.0 101000.0 71.0226
21390.0 101000.0 70.5006
21252.0 101000.0 70.4247
20413.0 101000.0 69.9474
20291.0 101000.0 69.8492
19526.0 101000.0 69.2112
19388.0 101000.0 69.0327
18826.0 101000.0 67.8906
18602.0 101000.0 67.1321
18228.0 101000.0 65.0709
18024.0 101000.0 63.5853
17878.0 101000.0 62.394
17772.0 101000.0 61.3947
17695.0 101000.0 60.5381
17544.0 101000.0 58.6732
17373.0 101000.0 56.4558
17231.0 101000.0 54.6801
17109.0 101000.0 53.1543
17011.0 101000.0 51.8158
16921.0 101000.0 50.6291
16848.0 101000.0 49.5672
16779.0 101000.0 48.6571
16718.0 101000.0 47.8362
16612.0 101000.0 45.9222
16453.0 101000.0 43.6
16327 101000.0 41.7373
16213 101000.0 40.1231
16103 101000.0 38.6865
16014.0 101000.0 37.386
15916.0 101000.0 36.2947
15831.0 101000.0 35.352
15749.0 101000.0 34.5409
15420.0 101000.0 32.4074
14862.0 101000.0 31.4937
13560.0 101000.0 31.1479
12571.0 101000.0 30.9815
11590.0 101000.0 30.8397
10618.0 101000.0 30.7089
9665.3 101000.0 30.547
6877.6 101000.0 30.0286
6613.1 101000.0 29.9478
4810.2 101000.0 29.2821
2547.5 101000.0 26.6762
1574.8 101000.0 24.4271
622.26 101000.0 22.4953
301.22 101000.0 20.8664
187.21 101000.0 19.341
136.8 101000.0 17.8357
110.42 101000.0 16.3871
93.515 101000.0 14.954
86.605 101000.0 14.2099
80.589 101000.0 13.4528
75.183 101000.0 12.7055
70.346 101000.0 11.9715
65.793 101000.0 11.2336
61.485 101000.0 10.4988
57.257 101000.0 9.77737
53.152 101000.0 9.05282
49.047 101000.0 8.33943
45.022 101000.0 7.63541
40.998 101000.0 6.93272
36.771 101000.0 6.23316
32.544 101000.0 5.53672
28.072 101000.0 4.84385
23.561 101000.0 4.15785
19.089 101000.0 3.47894