File: database/DUT-49/DUT-49_nbutane_273K_vielePunkte.aif
# generated using pymatgen
data_raw2ciftest
_operator   Simon
_date   '2004-07-15 00:00:00'
_instrument   BELSORP-max-00349
_adsorptive   C4H10
_temperature   273.15
_sample_mass   0.0049
_sample_id   DUT-49_nbutane_273K_vielePunkte
_material_id   DUT-49
loop_
 _adsorption_pressure
 _adsorption_p0
 _adsorption_amount
  2.5129  101330.0  -0.000182341
  43.174  101330.0  0.0806817
  86.515  101330.0  0.17034
  127.57  101330.0  0.263277
  243.04  101330.0  0.588248
  321.36  101330.0  0.868877
  423.82  101330.0  1.22468
  520.91  101330.0  1.52142
  709.85  101330.0  1.92549
  936.94  101330.0  2.26135
  1038.7  101330.0  2.38512
  1718.2  101330.0  2.77153
  2223.5  101330.0  3.15499
  2335.4  101330.0  3.23949
  2854.9  101330.0  3.56322
  3457.1  101330.0  3.8865
  4090.2  101330.0  4.21152
  4686.6  101330.0  4.49674
  5321.3  101330.0  4.78005
  5915.3  101330.0  5.02186
  6546.8  101330.0  5.27974
  7140.8  101330.0  5.52512
  7754.7  101330.0  5.78032
  8350.8  101330.0  6.03998
  8699.3  101330.0  6.20014
  8997.3  101330.0  6.35139
  9305.1  101330.0  6.49817
  9602.3  101330.0  6.64763
  9908.5  101330.0  6.82475
  10031.0  101330.0  6.90952
  10230.0  101330.0  7.01481
  10681.0  101330.0  7.29901
  11005.0  101330.0  7.8732
  11164.0  101330.0  8.12171
  12202.0  101330.0  8.40055
  13312.0  101330.0  8.4532
  14481.0  101330.0  8.50094
  15493.0  101330.0  8.54421
  16519.0  101330.0  8.57411
  17517.0  101330.0  8.61247
  18512.0  101330.0  8.64237
  19504.0  101330.0  8.68252
  20530.0  101330.0  8.71375
  21516.0  101330.0  8.75658
  22443.0  101330.0  8.8061
  23459.0  101330.0  8.85072
  24476.0  101330.0  8.88463
  25482.0  101330.0  8.91318
  26502.0  101330.0  8.95021
  27511.0  101330.0  8.98992
  28524.0  101330.0  9.02382
  29541.0  101330.0  9.06665
  30559.0  101330.0  9.09967
  32586.0  101330.0  9.16436
  35605.0  101330.0  9.26653
  37681.0  101330.0  9.34996
  40676.0  101330.0  9.46328
  42738.0  101330.0  9.55028
  45741.0  101330.0  9.6703
  47807.0  101330.0  9.768
  50763.0  101330.0  9.95315
  52751.0  101330.0  10.1718
  55489.0  101330.0  10.9396
  55859.0  101330.0  11.106
  57626.0  101330.0  11.6383
  57861.0  101330.0  11.8435
  60272.0  101330.0  13.0316
  60749.0  101330.0  13.4849
  64194.0  101330.0  16.6106
  65492  101330.0  17.5649
  65840.0  101330.0  17.9807
  69598.0  101330.0  20.5434
  70728.0  101330.0  21.2175
  70992.0  101330.0  21.4959
  75282.0  101330.0  23.0807
  76008.0  101330.0  23.4733
  80647.0  101330.0  24.5927
  81178.0  101330.0  24.8412
  85977.0  101330.0  25.5626
  86289.0  101330.0  25.7437
  91145.0  101330.0  26.3496
  96238.0  101330.0  26.9524
  96437.0  101330.0  27.1089
loop_
 _desorption_pressure
 _desorption_p0
 _desorption_amount
  96088.0  101330.0  27.1821
  96088.0  101330.0  27.1821
  91075.0  101330.0  26.9751
  91075.0  101330.0  26.9751
  86028.0  101330.0  26.7422
  86028.0  101330.0  26.7422
  80977.0  101330.0  26.4852
  80977.0  101330.0  26.4852
  75925.0  101330.0  26.2443
  75925.0  101330.0  26.2443
  70877.0  101330.0  26.0025
  70877.0  101330.0  26.0025
  65817.0  101330.0  25.7549
  65817.0  101330.0  25.7549
  60762.0  101330.0  25.5108
  60762.0  101330.0  25.5108
  55700.0  101330.0  25.2717
  55700.0  101330.0  25.2717
  50642.0  101330.0  25.0232
  50642.0  101330.0  25.0232
  45594.0  101330.0  24.743
  45594.0  101330.0  24.743
  40531.0  101330.0  24.4535
  40531.0  101330.0  24.4535
  35450.0  101330.0  24.1162
  35450.0  101330.0  24.1162
  30391.0  101330.0  23.7329
  30391.0  101330.0  23.7329
  28266.0  101330.0  23.5469
  28266.0  101330.0  23.5469
  26338.0  101330.0  23.2792
  26338.0  101330.0  23.2792
  24328.0  101330.0  22.8884
  24328.0  101330.0  22.8884
  22471.0  101330.0  22.1397
  22471.0  101330.0  22.1397
  22330.0  101330.0  21.7146
  22330.0  101330.0  21.7146
  22212.0  101330.0  21.4629
  22212.0  101330.0  21.4629
  21200.0  101330.0  19.6703
  21200.0  101330.0  19.6703
  20384.0  101330.0  19.0452
  20384.0  101330.0  19.0452
  20263.0  101330.0  18.8512
  20263.0  101330.0  18.8512
  18447.0  101330.0  18.3243
  18447.0  101330.0  18.3243
  18253.0  101330.0  17.933
  18253.0  101330.0  17.933
  17478.0  101330.0  15.4524
  17478.0  101330.0  15.4524
  17122.0  101330.0  13.7909
  17122.0  101330.0  13.7909
  16871.0  101330.0  12.4967
  16871.0  101330.0  12.4967
  16611.0  101330.0  11.3599
  16611.0  101330.0  11.3599
  16410.0  101330.0  10.6286
  16410.0  101330.0  10.6286
  16299.0  101330.0  10.1459
  16299.0  101330.0  10.1459
  16184  101330.0  9.71268
  16184  101330.0  9.71268
  14483.0  101330.0  8.90693
  14483.0  101330.0  8.90693
  14154.0  101330.0  8.85295
  14154.0  101330.0  8.85295
  12135.0  101330.0  8.76193
  12135.0  101330.0  8.76193
  10631.0  101330.0  8.67404
  10631.0  101330.0  8.67404
  10120.0  101330.0  8.64014
  10120.0  101330.0  8.64014
  10007.0  101330.0  8.61694
  10007.0  101330.0  8.61694
  9803.4  101330.0  8.59909
  9803.4  101330.0  8.59909
  9207.8  101330.0  8.5286
  9207.8  101330.0  8.5286
  8281.2  101330.0  8.46346
  8281.2  101330.0  8.46346
  7388.3  101330.0  8.36754
  7388.3  101330.0  8.36754
  6465.0  101330.0  8.21272
  6465.0  101330.0  8.21272
  5276.5  101330.0  7.9031
  5276.5  101330.0  7.9031
  5192.7  101330.0  7.78888
  5192.7  101330.0  7.78888
  4016.1  101330.0  7.66396
  4016.1  101330.0  7.66396