File: example/results/digitized_results.csv
c,n_monolayer,BET_area,pp0_monolayer,pp0_min,pp0_max,pp0_mean,r2,monolayer_difference
14.876,0.0753651,7352.35,0.205891,0.0798984,0.09434,0.0871201,0.999899,0.118771
48.3794,0.0502742,4904.57,0.125699,0.0625719,0.0769775,0.0702535,0.999016,0.0554452
55.7972,0.048692,4750.22,0.118067,0.0568055,0.0712111,0.0635295,0.999846,0.0545377
59.0044,0.0481541,4697.74,0.115188,0.049601,0.0625719,0.0563261,0.999669,0.0588623
104.27,0.0402837,3929.93,0.0891958,0.010503,0.0134274,0.0119641,0.995934,0.0772318
114.972,0.0427525,4170.78,0.0853061,0.0409686,0.0568055,0.049125,0.99905,0.0361811
134.638,0.0360433,3516.25,0.079344,0.0090374,0.0119618,0.0105007,0.999819,0.0688432
145.405,0.0415446,4052.94,0.0765791,0.0207692,0.0409686,0.0313569,0.99964,0.0452223
203.965,0.0397939,3882.15,0.065438,0.0323328,0.049601,0.0409675,0.999982,0.0244705