File: example/results/new_results.csv
c,n_monolayer,BET_area,pp0_monolayer,pp0_min,pp0_max,pp0_mean,r2,monolayer_difference
11.121,0.220617,21522.6,0.230691,0.00634993,0.00805573,0.00746437,0.997682,0.223226
32.5234,0.0565456,5516.39,0.149188,0.0634318,0.0777041,0.0717908,0.99844,0.0773976
54.9286,0.0497648,4854.87,0.118887,0.0513227,0.0742365,0.062997,0.998968,0.0558895
91.5379,0.0451347,4403.18,0.0946294,0.0397939,0.0634318,0.0515161,0.999796,0.0431132
130.21,0.0426271,4158.54,0.0805738,0.0290507,0.0513227,0.0400558,0.999889,0.0405181
164.9,0.0410203,4001.79,0.0722474,0.0202745,0.0397939,0.0297063,0.999962,0.0425411
167.237,0.0408466,3984.84,0.071777,0.0146323,0.0290507,0.0213192,0.999951,0.0504579
195.326,0.023179,2261.26,0.0667739,0.00251274,0.00399596,0.00322377,0.996267,0.0635502
304.618,0.0178326,1739.69,0.0541908,0.00200516,0.00316263,0.00256017,0.997938,0.0516306
477.4,0.0140235,1368.08,0.0437647,0.00159174,0.00251274,0.00203654,0.997352,0.0417281
731.974,0.0113959,1111.75,0.0356442,0.00125827,0.00200516,0.00161839,0.998931,0.0340259
1065.48,0.00965568,941.974,0.029725,0.000999058,0.00159174,0.00128302,0.998732,0.028442
1354.58,0.00870591,849.317,0.0264518,0.000791413,0.00125827,0.00101625,0.999995,0.0254356
1735.44,0.0078621,766.998,0.0234419,0.000635639,0.000999058,0.000808703,0.99801,0.0226332
2578.66,0.00670498,654.114,0.0193123,0.000501109,0.000791413,0.00064272,0.999776,0.0186696
3040.27,0.00629129,613.755,0.0178131,0.000399185,0.000635639,0.000511977,0.999866,0.0173011
3455.8,0.0059711,582.519,0.0167263,0.000312963,0.000501109,0.000404419,0.999931,0.0163219
3475.92,0.00637859,622.272,0.0166786,2.5177e-05,3.98274e-05,3.22303e-05,0.999294,0.0166464
3623.18,0.0061501,599.982,0.0163418,3.16865e-05,5.03046e-05,4.06061e-05,0.999959,0.0163012
3772.3,0.00574638,560.597,0.0160207,0.000246634,0.000399185,0.000319594,0.999943,0.0157011
3971.39,0.00562805,549.052,0.0156204,9.54984e-05,0.000154382,0.00012393,0.999982,0.0154964
4021.08,0.00557256,543.638,0.0155251,0.00019519,0.000312963,0.000251596,0.999982,0.0152735
4077.4,0.0055299,539.477,0.0154191,8.50065e-05,0.000121911,0.000100805,0.999604,0.0153183
4082.12,0.0055297,539.457,0.0154104,0.000121911,0.00019519,0.000157161,0.999991,0.0152532
4119.88,0.00550085,536.643,0.0153407,0.000154382,0.000246634,0.000198735,1,0.0151419
4128.46,0.00547662,534.28,0.015325,6.92622e-05,9.54984e-05,8.32557e-05,0.999283,0.0152417
4359.32,0.00525348,512.51,0.0149198,3.98274e-05,6.92622e-05,5.31314e-05,0.998268,0.0148666
4375.2,0.00524878,512.052,0.0148931,5.03046e-05,8.50065e-05,6.81911e-05,0.998943,0.0148249