File: database/DUT-67/DUT-67-N2_77K.DAT.aif
data_data_raw2aif
_exptl_operator Simon
_exptl_date 2016-03-05
_exptl_instrument BELSORP-max-00218
_exptl_adsorptive N2
_exptl_temperature 77.0
_exptl_sample_mass 0.0387
_sample_id DUT67Zr
_sample_material_id DUT-67

loop_
_adsorp_pressure
_adsorp_p0
_adsorp_amount
-3.3975 100010.0 1.03605
-3.3975 100030.0 2.06148
-6.795 99969.0 3.08878
-4.0983e-16 99847.0 4.12648
14.87 99753.0 5.15035
26.983 99717.0 6.1533
43.134 99668.0 7.13929
91.586 99607.0 8.09226
176.38 99534.0 8.96627
523.62 99522.0 10.4243
1238.3 99538.0 11.5803
2916.0 99493.0 12.2191
5548.4 99448.0 12.5703
7957.5 99481.0 12.7514
10618.0 99518.0 12.8826
12576.0 99485.0 12.9557
15002.0 99485.0 13.0285
17589.0 99501.0 13.0927
20222.0 99481.0 13.1503
22810.0 99440.0 13.1993
25414.0 99448.0 13.2413
27993.0 99452.0 13.2792
30569.0 99481.0 13.3131
33153.0 99485.0 13.343
35712.0 99436.0 13.3658
38263.0 99526.0 13.3916
40855.0 99493.0 13.4193
43390.0 99489.0 13.4394
45933.0 99489.0 13.4617
48484.0 99457.0 13.4804
51007.0 99448.0 13.4987
53546.0 99461.0 13.5143
56089.0 99461.0 13.5344
58628.0 99457.0 13.5527
61167.0 99440.0 13.5683
63698.0 99477.0 13.5812
66249.0 99481.0 13.5951
68804.0 99469.0 13.6089
71331.0 99457.0 13.6259
73850.0 99481.0 13.6459
76381.0 99469.0 13.6504
78908.0 99473.0 13.662
81451.0 99473.0 13.6745
83982.0 99448.0 13.6879
86488.0 99457.0 13.7022
89023.0 99448.0 13.7169
91542.0 99448.0 13.7303
94040.0 99436.0 13.749
98338.0 99444.0 13.9404

loop_
_desorp_pressure
_desorp_p0
_desorp_amount
93971.0 99432.0 13.7593
93971.0 99432.0 13.7593
90920.0 99440.0 13.7196
90920.0 99440.0 13.7196
86151.0 99416.0 13.6946
86151.0 99416.0 13.6946
83539.0 99420.0 13.6843
83539.0 99420.0 13.6843
81073.0 99440.0 13.6665
81073.0 99440.0 13.6665
78636.0 99428.0 13.6482
78636.0 99428.0 13.6482
76198.0 99432.0 13.6348
76198.0 99432.0 13.6348
73753.0 99400.0 13.6196
73753.0 99400.0 13.6196
71287.0 99387.0 13.6098
71287.0 99387.0 13.6098
68853.0 99404.0 13.5946
68853.0 99404.0 13.5946
66416.0 99416.0 13.5812
66416.0 99416.0 13.5812
63995.0 99424.0 13.5696
63995.0 99424.0 13.5696
61569.0 99424.0 13.5482
61569.0 99424.0 13.5482
59132.0 99428.0 13.5335
59132.0 99428.0 13.5335
56694.0 99440.0 13.5174
56694.0 99440.0 13.5174
54269.0 99432.0 13.5005
54269.0 99432.0 13.5005
51832.0 99396.0 13.4853
51832.0 99396.0 13.4853
49386.0 99416.0 13.4621
49386.0 99416.0 13.4621
46977.0 99383.0 13.4407
46977.0 99383.0 13.4407
44527.0 99363.0 13.4242
44527.0 99363.0 13.4242
42106.0 99379.0 13.401
42106.0 99379.0 13.401
39677.0 99343.0 13.3845
39677.0 99343.0 13.3845
37235.0 99168.0 13.3555
37235.0 99168.0 13.3555
34794.0 99119.0 13.326
34794.0 99119.0 13.326
32365 99127.0 13.2966
32365 99127.0 13.2966
29960.0 99148.0 13.2663
29960.0 99148.0 13.2663
27555.0 99115.0 13.235
27555.0 99115.0 13.235
25170.0 99127.0 13.1984
25170.0 99127.0 13.1984
22761.0 99058.0 13.1574
22761.0 99058.0 13.1574
20384.0 99046.0 13.1146
20384.0 99046.0 13.1146
18008.0 99103.0 13.0633
18008.0 99103.0 13.0633
15660.0 99066.0 13.0066
15660.0 99066.0 13.0066
13344.0 99099.0 12.9374
13344.0 99099.0 12.9374
10273.0 99013.0 12.8273
10273.0 99013.0 12.8273
7835.6 99050.0 12.7063
7835.6 99050.0 12.7063
5593.1 99038.0 12.5359
5593.1 99038.0 12.5359
1226.2 98965.0 11.5227
1226.2 98965.0 11.5227