File: database/DUT-67/DUT-67Zr_EtOH.aif
# generated using pymatgen
data_raw2ciftest
_operator   Volodymyr
_date   '2018-05-17 00:00:00'
_instrument   BELSORP-max-00348
_adsorptive   EtOH
_temperature   298.0
_sample_mass   0.0857
_sample_id   DUT-67Zr_EtOH
_material_id   DUT-67
loop_
 _adsorption_pressure
 _adsorption_p0
 _adsorption_amount
  16.554  7890.0  1.48604
  130.67  7890.0  2.94637
  326.89  7890.0  3.92536
  466.54  7890.0  4.93308
  663.88  7890.0  6.45802
  958.83  7890.0  6.947
  1786.3  7890.0  7.38779
  3183.8  7890.0  7.7407
  5372.0  7890.0  7.99857
  6990.6  7890.0  8.15294
  7672.1  7890.0  8.34478
loop_
 _desorption_pressure
 _desorption_p0
 _desorption_amount
  5671.2  7890.0  8.04453
  5671.2  7890.0  8.04453
  3713.1  7890.0  7.85937
  3713.1  7890.0  7.85937
  2750.8  7890.0  7.69385
  2750.8  7890.0  7.69385
  2177.9  7890.0  7.55376
  2177.9  7890.0  7.55376
  1792.4  7890.0  7.43553
  1792.4  7890.0  7.43553
  1510.3  7890.0  7.33604
  1510.3  7890.0  7.33604
  1318.4  7890.0  7.24904
  1318.4  7890.0  7.24904
  1175.8  7890.0  7.17007
  1175.8  7890.0  7.17007
  1064.4  7890.0  7.09958
  1064.4  7890.0  7.09958
  856.77  7890.0  6.91621
  856.77  7890.0  6.91621
  674.18  7890.0  6.62265
  674.18  7890.0  6.62265
  490.79  7890.0  5.61703
  490.79  7890.0  5.61703
  480.33  7890.0  5.49121
  480.33  7890.0  5.49121
  320.65  7890.0  4.13492
  320.65  7890.0  4.13492
  283.04  7890.0  3.85429
  283.04  7890.0  3.85429
  280.65  7890.0  3.83698
  280.65  7890.0  3.83698
  91.149  7890.0  2.85438
  91.149  7890.0  2.85438
  82.325  7890.0  2.79718
  82.325  7890.0  2.79718