File: database/DUT-67/DUT-67Zr_Methanol.aif
# generated using pymatgen
data_raw2ciftest
_operator   Volodymyr
_date   '2015-05-17 00:00:00'
_instrument   BELSORP-max-00348
_adsorptive   MeOH
_temperature   298.0
_sample_mass   0.0352
_sample_id   DUT-67Zr_Methanol
_material_id   DUT-67
loop_
 _adsorption_pressure
 _adsorption_p0
 _adsorption_amount
  67.414  16850.0  1.43901
  99.6  16850.0  1.89275
  511.71  16850.0  3.45191
  1008.8  16850.0  4.43192
  1436.8  16850.0  5.40243
  1822.6  16850.0  6.40626
  2072.7  16850.0  7.5029
  2534.2  16850.0  9.19916
  2986.3  16850.0  9.7042
  3660.4  16850.0  10.1231
  4866.3  16850.0  10.5394
  6422.3  16850.0  10.9012
  8225.9  16850.0  11.2211
  10637.0  16850.0  11.508
  13180.0  16850.0  11.7458
  15473.0  16850.0  12.0942
loop_
 _desorption_pressure
 _desorption_p0
 _desorption_amount
  13081.0  16850.0  11.7659
  13081.0  16850.0  11.7659
  10811.0  16850.0  11.5718
  10811.0  16850.0  11.5718
  8691.1  16850.0  11.3331
  8691.1  16850.0  11.3331
  6886.7  16850.0  11.0538
  6886.7  16850.0  11.0538
  5449.4  16850.0  10.7433
  5449.4  16850.0  10.7433
  4306.1  16850.0  10.4283
  4306.1  16850.0  10.4283
  3383.9  16850.0  10.041
  3383.9  16850.0  10.041
  2796.4  16850.0  9.6056
  2796.4  16850.0  9.6056
  2480.1  16850.0  9.19292
  2480.1  16850.0  9.19292
  2201.6  16850.0  8.40591
  2201.6  16850.0  8.40591
  1944.6  16850.0  6.96484
  1944.6  16850.0  6.96484
  1771.8  16850.0  6.33354
  1771.8  16850.0  6.33354
  1367.2  16850.0  5.31186
  1367.2  16850.0  5.31186
  1025.8  16850.0  4.55742
  1025.8  16850.0  4.55742
  598.83  16850.0  3.71531
  598.83  16850.0  3.71531
  192.28  16850.0  2.54707
  192.28  16850.0  2.54707
  172.28  16850.0  2.44071
  172.28  16850.0  2.44071