File: database/DUT-67/DUT-67Zr_hexane.aif
# generated using pymatgen
data_raw2ciftest
_operator   Volodymyr
_date   '2019-05-17 00:00:00'
_instrument   BELSORP-max-00348
_adsorptive   Hexane
_temperature   298.0
_sample_mass   0.0352
_sample_id   DUT-67Zr_hexane
_material_id   DUT-67
loop_
 _adsorption_pressure
 _adsorption_p0
 _adsorption_amount
  30.979  20000.0  0.926831
  357.7  20000.0  2.61319
  1251.2  20000.0  2.85531
  2773.9  20000.0  2.98684
  4542.2  20000.0  3.05358
  7144.7  20000.0  3.11007
  10209.0  20000.0  3.15437
  13357.0  20000.0  3.19006
  16977.0  20000.0  3.23887
  19478.0  20000.0  3.91706
loop_
 _desorption_pressure
 _desorption_p0
 _desorption_amount
  17747.0  20000.0  3.25431
  17747.0  20000.0  3.25431
  14416.0  20000.0  3.19256
  14416.0  20000.0  3.19256
  11488.0  20000.0  3.15464
  11488.0  20000.0  3.15464
  8627.9  20000.0  3.11555
  8627.9  20000.0  3.11555
  6111.2  20000.0  3.07317
  6111.2  20000.0  3.07317
  3981.9  20000.0  3.01419
  3981.9  20000.0  3.01419
  2233.6  20000.0  2.93125
  2233.6  20000.0  2.93125
  1226.4  20000.0  2.83042
  1226.4  20000.0  2.83042
  763.02  20000.0  2.74998
  763.02  20000.0  2.74998
  540.17  20000.0  2.68466
  540.17  20000.0  2.68466
  216.31  20000.0  2.44771
  216.31  20000.0  2.44771
  200.99  20000.0  2.42014
  200.99  20000.0  2.42014