File: database/DUT-67/DUT-67_H2O_298K.DAT.aif
data_data_raw2aif
_exptl_operator Claudi
_exptl_date 2017-01-16
_exptl_instrument BELSORP-max-00348
_exptl_adsorptive H2O
_exptl_temperature 298.15
_exptl_sample_mass 0.0374
_sample_id arching
_sample_material_id DUT-67

loop_
_adsorp_pressure
_adsorp_p0
_adsorp_amount
24.284 3140.0 0.207058
66.971 3140.0 0.401111
124.86 3140.0 0.78393
153.5 3140.0 1.17681
181.46 3140.0 1.78063
199.87 3140.0 2.16342
245.8 3140.0 2.74788
297.18 3140.0 3.12559
327.71 3140.0 3.31868
393.73 3140.0 3.70228
429.07 3140.0 3.89306
466.34 3140.0 4.08075
505.33 3140.0 4.26952
544.44 3140.0 4.46025
585.22 3140.0 4.652
671.89 3140.0 5.01918
721.92 3140.0 5.21058
775.0 3140.0 5.39752
827.62 3140.0 5.58446
872.83 3140.0 5.77407
895.32 3140.0 5.97573
919.44 3140.0 6.59409
930.27 3140.0 7.25395
937.21 3140.0 7.90979
942.31 3140.0 8.55581
946.33 3140.0 9.19693
950.39 3140.0 9.83582
954.35 3140.0 10.4774
958.09 3140.0 11.1015
962.44 3140.0 11.7253
968.75 3140.0 12.3829
977.47 3140.0 13.0294
1005.5 3140.0 13.6495
1076.9 3140.0 14.0515
1100.6 3140.0 14.2603
1131.3 3140.0 14.9157
1140.7 3140.0 15.3391
1148.9 3140.0 15.7875
1160.5 3140.0 16.4504
1171.6 3140.0 17.1023
1182.5 3140.0 17.7398
1190.6 3140.0 18.1886
1203.0 3140.0 18.8556
1216.1 3140.0 19.503
1230.6 3140.0 20.1325
1248.2 3140.0 20.791
1269.1 3140.0 21.4272
1297.8 3140.0 22.067
1311.2 3140.0 22.2727
1359.6 3140.0 22.6876
1444.9 3140.0 23.0798
1497.8 3140.0 23.277
1552.3 3140.0 23.471
1612.5 3140.0 23.6602
1664.9 3140.0 23.8587
1713.7 3140.0 24.0551
1767.4 3140.0 24.2451
1830.8 3140.0 24.4325
1906.0 3140.0 24.6248
1985.3 3140.0 24.8015
2068.3 3140.0 24.979
2166.7 3140.0 25.1548
2277.3 3140.0 25.3235
2405.3 3140.0 25.4912
2552.9 3140.0 25.6532
2696.5 3140.0 25.8129
2856.2 3140.0 25.9842
2989.6 3140.0 26.1805

loop_
_desorp_pressure
_desorp_p0
_desorp_amount
2838.4 3140.0 26.0052
2838.4 3140.0 26.0052
2674.9 3140.0 25.8432
2674.9 3140.0 25.8432
2511.5 3140.0 25.6839
2511.5 3140.0 25.6839
2348.4 3140.0 25.5211
2348.4 3140.0 25.5211
2198.4 3140.0 25.3654
2198.4 3140.0 25.3654
2055.2 3140.0 25.2021
2055.2 3140.0 25.2021
1926.4 3140.0 25.0379
1926.4 3140.0 25.0379
1801.9 3140.0 24.8715
1801.9 3140.0 24.8715
1682.8 3140.0 24.7006
1682.8 3140.0 24.7006
1573.8 3140.0 24.5222
1573.8 3140.0 24.5222
1478.7 3140.0 24.3482
1478.7 3140.0 24.3482
1388.0 3140.0 24.1742
1388.0 3140.0 24.1742
1302.7 3140.0 23.8106
1302.7 3140.0 23.8106
1286.3 3140.0 23.6067
1286.3 3140.0 23.6067
1259.6 3140.0 22.97
1259.6 3140.0 22.97
1248.7 3140.0 22.5529
1248.7 3140.0 22.5529
1232.8 3140.0 21.9019
1232.8 3140.0 21.9019
1219.7 3140.0 21.2599
1219.7 3140.0 21.2599
1207.1 3140.0 20.6335
1207.1 3140.0 20.6335
1194.7 3140.0 19.9777
1194.7 3140.0 19.9777
1183.6 3140.0 19.3326
1183.6 3140.0 19.3326
1173.5 3140.0 18.6986
1173.5 3140.0 18.6986
1164.0 3140.0 18.0766
1164.0 3140.0 18.0766
1153.0 3140.0 17.4266
1153.0 3140.0 17.4266
1142.3 3140.0 16.79
1142.3 3140.0 16.79
1131.0 3140.0 16.1662
1131.0 3140.0 16.1662
1119.0 3140.0 15.559
1119.0 3140.0 15.559
1100.2 3140.0 14.9353
1100.2 3140.0 14.9353
1066.9 3140.0 14.3437
1066.9 3140.0 14.3437
1006.6 3140.0 13.9556
1006.6 3140.0 13.9556
981.85 3140.0 13.757
981.85 3140.0 13.757
956.43 3140.0 13.1387
956.43 3140.0 13.1387
947.41 3140.0 12.5265
947.41 3140.0 12.5265
941.26 3140.0 11.9077
941.26 3140.0 11.9077
936.18 3140.0 11.2912
936.18 3140.0 11.2912
931.69 3140.0 10.6773
931.69 3140.0 10.6773
926.96 3140.0 10.07
926.96 3140.0 10.07
923.01 3140.0 9.46685
923.01 3140.0 9.46685
918.38 3140.0 8.86856
918.38 3140.0 8.86856
912.94 3140.0 8.27474
912.94 3140.0 8.27474
906.07 3140.0 7.68761
906.07 3140.0 7.68761
900.64 3140.0 7.30258
900.64 3140.0 7.30258
886.83 3140.0 6.73954
886.83 3140.0 6.73954
848.16 3140.0 6.20416
848.16 3140.0 6.20416
773.15 3140.0 5.88382
773.15 3140.0 5.88382
685.71 3140.0 5.60096
685.71 3140.0 5.60096
608.92 3140.0 5.35023
608.92 3140.0 5.35023
576.63 3140.0 5.23378
576.63 3140.0 5.23378
547.42 3140.0 5.12358
547.42 3140.0 5.12358
496.25 3140.0 4.92014
496.25 3140.0 4.92014
453.84 3140.0 4.73365
453.84 3140.0 4.73365
418.54 3140.0 4.56233
418.54 3140.0 4.56233
373.75 3140.0 4.32846
373.75 3140.0 4.32846
325.93 3140.0 4.05349
325.93 3140.0 4.05349
286.15 3140.0 3.81422
286.15 3140.0 3.81422
246.57 3140.0 3.55479
246.57 3140.0 3.55479
204.09 3140.0 3.16253
204.09 3140.0 3.16253
178.13 3140.0 2.71482
178.13 3140.0 2.71482
161.76 3140.0 2.31471
161.76 3140.0 2.31471
143.87 3140.0 1.86607
143.87 3140.0 1.86607
117.33 3140.0 1.41229
117.33 3140.0 1.41229
72.482 3140.0 1.06273
72.482 3140.0 1.06273
27.866 3140.0 0.834835
27.866 3140.0 0.834835