File: database/DUT-67/DUT-67Zr_DCM.aif
# generated using pymatgen
data_raw2ciftest
_operator   Volodymyr
_date   '2017-05-17 00:00:00'
_instrument   BELSORP-max-00348
_adsorptive   DCM
_temperature   298.0
_sample_mass   0.0352
_sample_id   DUT-67Zr_DCM
_material_id   DUT-67
loop_
 _adsorption_pressure
 _adsorption_p0
 _adsorption_amount
  463.14  57300.0  1.44892
  1763.2  57300.0  3.261
  2709.7  57300.0  4.68145
  3441.1  57300.0  5.08521
  4944.3  57300.0  5.46712
  8206.3  57300.0  5.79147
  12863.0  57300.0  6.04087
  18203.0  57300.0  6.2229
  23680.0  57300.0  6.34782
  30040.0  57300.0  6.45623
  36849.0  57300.0  6.55795
  44146.0  57300.0  6.66592
  52363.0  57300.0  6.83903
loop_
 _desorption_pressure
 _desorption_p0
 _desorption_amount
  47604.0  57300.0  6.77211
  47604.0  57300.0  6.77211
  42746.0  57300.0  6.71857
  42746.0  57300.0  6.71857
  38177.0  57300.0  6.66548
  38177.0  57300.0  6.66548
  33776.0  57300.0  6.61328
  33776.0  57300.0  6.61328
  29503.0  57300.0  6.55171
  29503.0  57300.0  6.55171
  25347.0  57300.0  6.48568
  25347.0  57300.0  6.48568
  21340.0  57300.0  6.41073
  21340.0  57300.0  6.41073
  17641.0  57300.0  6.29919
  17641.0  57300.0  6.29919
  13908.0  57300.0  6.16891
  13908.0  57300.0  6.16891
  11222.0  57300.0  6.04488
  11222.0  57300.0  6.04488
  8676.7  57300.0  5.89855
  8676.7  57300.0  5.89855
  6240.5  57300.0  5.70135
  6240.5  57300.0  5.70135
  4081.9  57300.0  5.36094
  4081.9  57300.0  5.36094
  2996.7  57300.0  4.95672
  2996.7  57300.0  4.95672
  2024.2  57300.0  3.87914
  2024.2  57300.0  3.87914
  1086.9  57300.0  2.46181
  1086.9  57300.0  2.46181
  597.64  57300.0  1.78
  597.64  57300.0  1.78