File: database/DUT-67/DUT67_1_Garching_acetone_298K.DAT.aif
data_data_raw2aif
_exptl_operator Volodymyr
_exptl_date 2017-05-19T00:00:00
_exptl_instrument 'BEL 00348'
_exptl_adsorptive Acetone
_exptl_temperature 298.00
_exptl_sample_mass 0.08570
_sample_id 'DUT-67Zr_acetone'
_sample_material_id DUT-67
_units_temperature K
_units_pressure kPa
_units_mass g
_units_loading cm3(STP)/g

loop_
_adsorp_pressure
_adsorp_p0
_adsorp_loading
5.7686 30500.0 0.457973
41.827 30500.0 1.04778
211.67 30500.0 1.70679
488.25 30500.0 2.2792
645.22 30500.0 2.78273
738.88 30500.0 3.26698
839.79 30500.0 3.72165
1182.2 30500.0 4.31106
1902.2 30500.0 4.70019
2556.0 30500.0 4.86437
3386.6 30500.0 4.99598
4241.7 30500.0 5.09235
6065.6 30500.0 5.25341
8136.3 30500.0 5.40823
10178.0 30500.0 5.56349
12358.0 30500.0 5.74685
14403.0 30500.0 5.93602
16114.0 30500.0 6.18051
18078.0 30500.0 6.42456
20127.0 30500.0 6.70518
21922.0 30500.0 6.95681
23631.0 30500.0 7.18435
26017.0 30500.0 7.45962
28376.0 30500.0 7.70501

loop_
_desorp_pressure
_desorp_p0
_desorp_loading
25298.0 30500.0 7.52432
22532.0 30500.0 7.36415
20263.0 30500.0 7.18881
18341.0 30500.0 7.03177
16514.0 30500.0 6.88855
14780.0 30500.0 6.75471
13065.0 30500.0 6.62666
11385.0 30500.0 6.49996
9993.2 30500.0 6.396
8452.7 30500.0 6.27643
7162.2 30500.0 6.17248
6076.6 30500.0 6.06541
4633.6 30500.0 5.87981
3835.9 30500.0 5.76961
2882.1 30500.0 5.63086
2227.9 30500.0 5.50326
1808.3 30500.0 5.38369
1353.7 30500.0 5.18649
936.6 30500.0 4.8086
897.95 30500.0 4.74346
724.4 30500.0 4.26608
622.68 30500.0 3.77929
508.26 30500.0 3.29963
328.62 30500.0 2.83336
313.44 30500.0 2.79464