File: database/DUT-67/DUT67_1_Garching_toluol_298K.DAT.aif
data_data_raw2aif
_exptl_operator Volodymyr
_exptl_date 2017-05-16
_exptl_instrument BELSORP-max-00348
_exptl_adsorptive Toluene
_exptl_temperature 298.0
_exptl_sample_mass 0.0857
_sample_id DUT-67Zr_toluol
_sample_material_id DUT-67

loop_
_adsorp_pressure
_adsorp_p0
_adsorp_amount
43.789 3770.0 1.46877
77.712 3770.0 2.93473
124.3 3770.0 3.42179
389.96 3770.0 3.87753
1511.9 3770.0 4.1935
3119.5 3770.0 4.34688
3819.2 3770.0 4.5311

loop_
_desorp_pressure
_desorp_p0
_desorp_amount
2815.0 3770.0 4.34621
2815.0 3770.0 4.34621
1748.1 3770.0 4.26448
1748.1 3770.0 4.26448
1179.9 3770.0 4.20559
1179.9 3770.0 4.20559
864.57 3770.0 4.15959
864.57 3770.0 4.15959
680.76 3770.0 4.1222
680.76 3770.0 4.1222
579.57 3770.0 4.0895
579.57 3770.0 4.0895
512.86 3770.0 4.06019
512.86 3770.0 4.06019
402.66 3770.0 4.01258
402.66 3770.0 4.01258
306.68 3770.0 3.95659
306.68 3770.0 3.95659
224.81 3770.0 3.88703
224.81 3770.0 3.88703
134.55 3770.0 3.7697
134.55 3770.0 3.7697
42.601 3770.0 3.41862
42.601 3770.0 3.41862