File: database/DUT-67/DUT67_1_Garching_isopropanol_298K.DAT.aif
data_data_raw2aif
_exptl_operator Volodymyr
_exptl_date 2017-05-22T00:00:00
_exptl_instrument 'BEL 00348'
_exptl_adsorptive Isopropanol
_exptl_temperature 298.00
_exptl_sample_mass 0.03520
_sample_id 'DUT-67Zr_acetone'
_sample_material_id DUT-67
_units_temperature K
_units_pressure kPa
_units_mass g
_units_loading cm3(STP)/g

loop_
_adsorp_pressure
_adsorp_p0
_adsorp_loading
3.7424 6000.0 0.448693
6.9999 6000.0 1.03846
11.728 6000.0 1.57933
26.675 6000.0 2.11189
91.476 6000.0 2.61167
150.89 6000.0 2.90899
185.68 6000.0 3.43223
203.4 6000.0 3.93977
227.54 6000.0 4.4292
329.08 6000.0 4.97368
404.02 6000.0 5.12358
531.41 6000.0 5.27572
726.81 6000.0 5.41001
1016.0 6000.0 5.53449
1382.2 6000.0 5.65852
1822.5 6000.0 5.75845
2358.8 6000.0 5.83921
3000.8 6000.0 5.90702
3740.4 6000.0 5.96948
4475.5 6000.0 6.02927
5203.7 6000.0 6.12608
5546.0 6000.0 6.49326

loop_
_desorp_pressure
_desorp_p0
_desorp_loading
5361.4 6000.0 6.20193
4650.3 6000.0 6.05916
3797.7 6000.0 5.98778
3010.6 6000.0 5.92755
2360.4 6000.0 5.86598
1876.2 6000.0 5.78701
1454.6 6000.0 5.70135
1100.5 6000.0 5.58981
813.54 6000.0 5.48229
645.06 6000.0 5.39306
537.09 6000.0 5.31632
416.68 6000.0 5.18828
295.49 6000.0 4.94379
217.03 6000.0 4.47756
194.02 6000.0 4.02962
182.85 6000.0 3.69537
165.13 6000.0 3.23869
114.89 6000.0 2.78821
63.146 6000.0 2.55577
60.712 6000.0 2.54051