File: database/DUT-67/DUT67_1_Garching_hexane_298K.DAT.aif
data_data_raw2aif
_exptl_operator Volodymyr
_exptl_date 2017-05-19T00:00:00
_exptl_instrument 'BEL 00348'
_exptl_adsorptive Hexane
_exptl_temperature 298.00
_exptl_sample_mass 0.03520
_sample_id 'DUT-67Zr_hexane'
_sample_material_id DUT-67
_units_temperature K
_units_pressure kPa
_units_mass g
_units_loading cm3(STP)/g

loop_
_adsorp_pressure
_adsorp_p0
_adsorp_loading
30.979 20000.0 0.926831
357.7 20000.0 2.61319
1251.2 20000.0 2.85531
2773.9 20000.0 2.98684
4542.2 20000.0 3.05358
7144.7 20000.0 3.11007
10209.0 20000.0 3.15437
13357.0 20000.0 3.19006
16977.0 20000.0 3.23887
19478.0 20000.0 3.91706

loop_
_desorp_pressure
_desorp_p0
_desorp_loading
17747.0 20000.0 3.25431
14416.0 20000.0 3.19256
11488.0 20000.0 3.15464
8627.9 20000.0 3.11555
6111.2 20000.0 3.07317
3981.9 20000.0 3.01419
2233.6 20000.0 2.93125
1226.4 20000.0 2.83042
763.02 20000.0 2.74998
540.17 20000.0 2.68466
216.31 20000.0 2.44771
200.99 20000.0 2.42014