File: database/DUT-67/DUT67_1_Garching_wasser_298K.DAT.aif
data_data_raw2aif
_exptl_operator Volodymyr
_exptl_date 2017-05-23
_exptl_instrument BELSORP-max-00348
_exptl_adsorptive H2O
_exptl_temperature 298.0
_exptl_sample_mass 0.0857
_sample_id DUT-67Zr_wasser
_sample_material_id DUT-67

loop_
_adsorp_pressure
_adsorp_p0
_adsorp_amount
6.7106 3140.0 0.162269
61.107 3140.0 0.660659
121.28 3140.0 1.15709
159.38 3140.0 1.66048
192.69 3140.0 2.15281
238.96 3140.0 2.6558
307.44 3140.0 3.15963
386.89 3140.0 3.65865
442.31 3140.0 3.99295
500.88 3140.0 4.32895
563.85 3140.0 4.66806
597.09 3140.0 4.83983
672.16 3140.0 5.18381
712.23 3140.0 5.35781
801.67 3140.0 5.70402
847.19 3140.0 5.87981
890.3 3140.0 6.05827
947.79 3140.0 6.60212
967.77 3140.0 7.16427
979.4 3140.0 7.72196
988.14 3140.0 8.27162
996.68 3140.0 8.84403
1004.4 3140.0 9.41867
1012.0 3140.0 9.98528
1020.0 3140.0 10.5465
1029.6 3140.0 11.1069
1041.7 3140.0 11.6588
1056.8 3140.0 12.2049
1084.9 3140.0 12.7688
1131.1 3140.0 13.1329
1205.8 3140.0 13.5
1237.7 3140.0 13.8757
1262.5 3140.0 14.4646
1269.5 3140.0 15.0344
1294.3 3140.0 15.5978
1315.5 3140.0 16.1787
1339.5 3140.0 16.7784
1359.4 3140.0 17.3682
1383.0 3140.0 17.9508
1407.0 3140.0 18.5215
1431.8 3140.0 19.105
1461.9 3140.0 19.6632
1495.2 3140.0 20.2476
1526.1 3140.0 20.6291
1596.8 3140.0 21.2077
1642.4 3140.0 21.3996
1714.8 3140.0 21.5901
1791.6 3140.0 21.7828
1856.2 3140.0 21.9702
1926.2 3140.0 22.1553
2010.7 3140.0 22.3325
2105.9 3140.0 22.5007
2205.1 3140.0 22.6604
2310.0 3140.0 22.8116
2422.2 3140.0 22.9553
2533.6 3140.0 23.0887
2655.2 3140.0 23.21
2775.9 3140.0 23.3225
2893.8 3140.0 23.4255

loop_
_desorp_pressure
_desorp_p0
_desorp_amount
2579.2 3140.0 23.2538
2579.2 3140.0 23.2538
2336.0 3140.0 23.0789
2336.0 3140.0 23.0789
2142.5 3140.0 22.9129
2142.5 3140.0 22.9129
1983.5 3140.0 22.7581
1983.5 3140.0 22.7581
1854.2 3140.0 22.6135
1854.2 3140.0 22.6135
1746.1 3140.0 22.4775
1746.1 3140.0 22.4775
1654.6 3140.0 22.349
1654.6 3140.0 22.349
1544.4 3140.0 22.0991
1544.4 3140.0 22.0991
1465.5 3140.0 21.6124
1465.5 3140.0 21.6124
1424.9 3140.0 21.1453
1424.9 3140.0 21.1453
1394.8 3140.0 20.6933
1394.8 3140.0 20.6933
1366.3 3140.0 20.2445
1366.3 3140.0 20.2445
1337.9 3140.0 19.7051
1337.9 3140.0 19.7051
1312.6 3140.0 19.1764
1312.6 3140.0 19.1764
1308.4 3140.0 18.6575
1308.4 3140.0 18.6575
1296.3 3140.0 18.2457
1296.3 3140.0 18.2457
1279.3 3140.0 17.7353
1279.3 3140.0 17.7353
1264.2 3140.0 17.2379
1264.2 3140.0 17.2379
1249.6 3140.0 16.7413
1249.6 3140.0 16.7413
1235.7 3140.0 16.2568
1235.7 3140.0 16.2568
1232.2 3140.0 16.0605
1232.2 3140.0 16.0605
1216.8 3140.0 15.5845
1216.8 3140.0 15.5845
1203.0 3140.0 15.1151
1203.0 3140.0 15.1151
1188.3 3140.0 14.6524
1188.3 3140.0 14.6524
1167.9 3140.0 14.1969
1167.9 3140.0 14.1969
1098.8 3140.0 13.6785
1098.8 3140.0 13.6785
1040.3 3140.0 13.2747
1040.3 3140.0 13.2747
1013.2 3140.0 12.8058
1013.2 3140.0 12.8058
999.01 3140.0 12.3436
999.01 3140.0 12.3436
988.97 3140.0 11.8872
988.97 3140.0 11.8872
981.88 3140.0 11.4348
981.88 3140.0 11.4348
981.17 3140.0 11.3594
981.17 3140.0 11.3594
972.28 3140.0 10.837
972.28 3140.0 10.837
965.29 3140.0 10.3181
965.29 3140.0 10.3181
958.98 3140.0 9.80369
958.98 3140.0 9.80369
952.96 3140.0 9.29374
952.96 3140.0 9.29374
947.19 3140.0 8.78558
947.19 3140.0 8.78558
940.54 3140.0 8.28054
940.54 3140.0 8.28054
932.58 3140.0 7.78219
932.58 3140.0 7.78219
921.36 3140.0 7.29232
921.36 3140.0 7.29232
915.53 3140.0 7.08397
915.53 3140.0 7.08397
876.0 3140.0 6.61595
876.0 3140.0 6.61595
851.51 3140.0 6.48791
851.51 3140.0 6.48791
787.51 3140.0 6.24877
787.51 3140.0 6.24877
723.38 3140.0 6.02748
723.38 3140.0 6.02748
655.19 3140.0 5.77898
655.19 3140.0 5.77898
597.74 3140.0 5.55456
597.74 3140.0 5.55456
534.36 3140.0 5.27304
534.36 3140.0 5.27304
476.34 3140.0 4.98572
476.34 3140.0 4.98572
470.82 3140.0 4.95226
470.82 3140.0 4.95226
410.47 3140.0 4.61096
410.47 3140.0 4.61096
349.2 3140.0 4.24007
349.2 3140.0 4.24007
284.92 3140.0 3.82301
284.92 3140.0 3.82301
225.38 3140.0 3.37361
225.38 3140.0 3.37361
221.18 3140.0 3.32788
221.18 3140.0 3.32788
182.51 3140.0 2.86932
182.51 3140.0 2.86932
159.21 3140.0 2.47827
159.21 3140.0 2.47827
132.31 3140.0 2.03163
132.31 3140.0 2.03163
96.85 3140.0 1.63135
96.85 3140.0 1.63135
94.334 3140.0 1.60699
94.334 3140.0 1.60699
34.193 3140.0 1.19207
34.193 3140.0 1.19207
31.327 3140.0 1.17007
31.327 3140.0 1.17007