File: examples/Default Dataset2.csv
0.984019, 1291.81
0.955323, 1289.91
0.923036, 1284.41
0.892907, 1284.3
0.866365, 1284.21
0.84054, 1284.12
0.816867, 1284.03
0.791042, 1283.94
0.766646, 1278.47
0.740104, 1278.37
0.716431, 1278.29
0.688454, 1278.19
0.666215, 1278.11
0.642542, 1278.02
0.615996, 1274.34
0.592322, 1272.46
0.566497, 1272.37
0.542101, 1266.9
0.516278, 1268.6
0.491886, 1266.72
0.46821, 1263.04
0.441667, 1262.95
0.417272, 1257.48
0.391447, 1257.39
0.367768, 1251.92
0.343375, 1248.24
0.31755, 1248.15
0.293872, 1242.68
0.269476, 1237.21
0.243646, 1231.74
0.21925, 1226.27
0.194851, 1217.21
0.171173, 1211.74
0.148925, 1200.89
0.126673, 1186.46
0.102976, 1161.25
0.0784379, 1006.86
0.0524927, 881.169
0.027996, 769.837
0.0142408, 638.807