File: database/bel/Sample_E.DAT.aif
data_data_raw2aif
_exptl_operator User
_exptl_date 2018-06-11T00:00:00
_exptl_instrument 'BEL 00345'
_exptl_adsorptive C3H8
_exptl_temperature 303.00
_exptl_sample_mass 0.0740
_sample_id 'Sample_E'
_sample_material_id Sample_E
_units_temperature K
_units_pressure kPa
_units_mass g
_units_loading cm3(STP)/g

loop_
_adsorp_pressure
_adsorp_p0
_adsorp_loading
219.73 1079000.0 0.333814
1196.3 1079000.0 0.67788
2201.4 1079000.0 0.95485
3389.5 1079000.0 1.2113
4711.9 1079000.0 1.41902
6620.3 1079000.0 1.6226
8838.0 1079000.0 1.79486
11263.0 1079000.0 1.9358
13961.0 1079000.0 2.06969
16113.0 1079000.0 2.16133
19771.0 1079000.0 2.28928
22429.0 1079000.0 2.37218
26034.0 1079000.0 2.46975
30843.0 1079000.0 2.58013
44332.0 1079000.0 2.80285
51111.0 1079000.0 2.89203
60714.0 1079000.0 2.98554
71021.0 1079000.0 3.06558
81023.0 1079000.0 3.1268
91016.0 1079000.0 3.17819
100970.0 1079000.0 3.22348