File: database/DUT-13/BF010_DUT-13_CH4_111K_run2.DAT.aif
data_data_raw2aif
_exptl_operator volodymyr
_exptl_date 2019-05-02 00:00:00
_exptl_instrument BELSORP-max-00218
_exptl_adsorptive CH4
_exptl_temperature 111.0
_exptl_sample_mass 0.0183
_sample_id ox
_sample_material_id DUT-13

loop_
_adsorp_pressure
_adsorp_p0
_adsorp_amount
756.13 101330.0 1.6761
1549.7 101330.0 3.57892
1598.5 101330.0 6.00071
1667.7 101330.0 8.32694
1903.8 101330.0 10.3257
2575.2 101330.0 12.4047
3295.6 101330.0 12.9611
5314.0 101330.0 14.4343
7723.1 101330.0 15.211
8646.8 101330.0 15.6469
9692.6 101330.0 15.8289
10734.0 101330.0 15.9659
11756.0 101330.0 16.0908
13030.0 101330.0 16.2086
13953.0 101330.0 16.3054
16338 101330.0 16.4486
18893.0 101330.0 16.6057
21421.0 101330.0 16.7538
26430.0 101330.0 16.9564
28937.0 101330.0 17.096
31456.0 101330.0 17.2281
33987.0 101330.0 17.3994
36510.0 101330.0 17.6376
39077.0 101330.0 17.9415
41470.0 101330.0 18.3086
43993.0 101330.0 18.6901
46520.0 101330.0 19.1095
48966.0 101330.0 19.532
51196.0 101330.0 19.9826
53739.0 101330.0 20.4453
56140.0 101330.0 20.9311
58773.0 101330.0 21.4098
61414.0 101330.0 21.8993
63978.0 101330.0 22.382
66476.0 101330.0 22.8679
69122.0 101330.0 23.3131
71665.0 101330.0 23.7499
74282.0 101330.0 24.2059
76821.0 101330.0 24.6194
79340.0 101330.0 25.0647
81814.0 101330.0 25.4551
84304.0 101330.0 25.8629
86835.0 101330.0 26.2613
89297.0 101330.0 26.7614
91458.0 101330.0 28.6981
91702.0 101330.0 32.7902
91747.0 101330.0 36.723
91755.0 101330.0 40.6768
91755.0 101330.0 44.6596
91768.0 101330.0 48.5679
91768.0 101330.0 52.5029
91772.0 101330.0 56.4513

loop_
_desorp_pressure
_desorp_p0
_desorp_amount
91763.0 101330.0 60.3641
91470.0 101330.0 56.7146
91470.0 101330.0 56.7146
91405.0 101330.0 53.0249
91405.0 101330.0 53.0249
91344.0 101330.0 49.5048
91344.0 101330.0 49.5048
91255.0 101330.0 46.2568
91255.0 101330.0 46.2568
90917.0 101330.0 43.563
90917.0 101330.0 43.563
89086.0 101330.0 39.8978
89086.0 101330.0 39.8978
88276.0 101330.0 37.7367
88276.0 101330.0 37.7367
85924.0 101330.0 34.8407
85924.0 101330.0 34.8407
83279.0 101330.0 30.6839
83279.0 101330.0 30.6839
80341.0 101330.0 27.5551
80341.0 101330.0 27.5551
77724.0 101330.0 27.4159
77724.0 101330.0 27.4159
75197.0 101330.0 27.2499
75197.0 101330.0 27.2499
72670.0 101330.0 27.1603
72670.0 101330.0 27.1603
70053.0 101330.0 27.0304
70053.0 101330.0 27.0304
67518.0 101330.0 26.9131
67518.0 101330.0 26.9131
64877 101330.0 26.8114
64877 101330.0 26.8114
62354.0 101330.0 26.6869
62354.0 101330.0 26.6869
59835.0 101330.0 26.5548
59835.0 101330.0 26.5548
57499.0 101330.0 26.4437
57499.0 101330.0 26.4437
54883.0 101330.0 26.2934
54883.0 101330.0 26.2934
52156.0 101330.0 26.1555
52156.0 101330.0 26.1555
49918.0 101330.0 26.0221
49918.0 101330.0 26.0221
47399.0 101330.0 25.8905
47399.0 101330.0 25.8905
44970.0 101330.0 25.7339
44970.0 101330.0 25.7339
42459.0 101330.0 25.5599
42459.0 101330.0 25.5599
39956.0 101330.0 25.3078
39956.0 101330.0 25.3078
37499.0 101330.0 25.0901
37499.0 101330.0 25.0901
34976.0 101330.0 24.88
34976.0 101330.0 24.88
32453 101330.0 24.6417
32453 101330.0 24.6417
29934.0 101330.0 24.3883
29934.0 101330.0 24.3883
27423.0 101330.0 24.0711
27423.0 101330.0 24.0711
25018.0 101330.0 23.6977
25018.0 101330.0 23.6977
19996.0 101330.0 22.4141
19996.0 101330.0 22.4141
17359.0 101330.0 20.7745
17359.0 101330.0 20.7745
14808.0 101330.0 18.6526
14808.0 101330.0 18.6526
12391.0 101330.0 16.9376
12391.0 101330.0 16.9376
11487.0 101330.0 16.7284
11487.0 101330.0 16.7284
10714.0 101330.0 16.5696
10714.0 101330.0 16.5696
9961.2 101330.0 16.4308
9961.2 101330.0 16.4308
9192.1 101330.0 16.3099
9192.1 101330.0 16.3099
8443.4 101330.0 16.1796
8443.4 101330.0 16.1796
7470.8 101330.0 16.0172
7470.8 101330.0 16.0172
6656.9 101330.0 15.8526
6656.9 101330.0 15.8526
4898.9 101330.0 15.4577
4898.9 101330.0 15.4577
4146.1 101330.0 14.9505
4146.1 101330.0 14.9505
2034 101330.0 13.7503
2034 101330.0 13.7503
1541.5 101330.0 13.5072
1541.5 101330.0 13.5072
402.68 101330.0 11.218
402.68 101330.0 11.218
135.16 101330.0 8.98813
135.16 101330.0 8.98813
66.596 101330.0 6.75828
66.596 101330.0 6.75828
26.421 101330.0 4.536
26.421 101330.0 4.536