File: database/DUT-13/BF010_DUT-13_CH4_111K.DAT.aif
data_data_raw2aif
_exptl_operator volodymyr
_exptl_date 2019-04-30T00:00:00
_exptl_instrument 'BEL 00218'
_exptl_adsorptive CH4
_exptl_temperature 111.00
_exptl_sample_mass 0.01830
_sample_id 'aus der Box'
_sample_material_id DUT-13
_units_temperature K
_units_pressure kPa
_units_mass g
_units_loading cm3(STP)/g

loop_
_adsorp_pressure
_adsorp_p0
_adsorp_loading
760.24 101330.0 -0.0228866
1586.3 101330.0 1.84844
1785.7 101330.0 3.96507
1964.8 101330.0 5.73481
1993.3 101330.0 7.58811
2070.6 101330.0 9.31427
2400.3 101330.0 12.2553
2864.2 101330.0 14.4276
5159.4 101330.0 16.3081
5932.5 101330.0 16.9599
7857.4 101330.0 17.7211
8891.0 101330.0 18.2029
9953.1 101330.0 18.467
10970.0 101330.0 18.6999
12000.0 101330.0 18.9069
13021.0 101330.0 19.0934
13945.0 101330.0 19.2835
16277 101330.0 19.5962
18775.0 101330.0 20.0656
21290.0 101330.0 20.6549
26226.0 101330.0 22.879
28631.0 101330.0 24.3339
31122.0 101330.0 26.1613
33661.0 101330.0 28.2181
36245.0 101330.0 30.2356
38846.0 101330.0 31.9524
41503.0 101330.0 33.8244
44071.0 101330.0 34.9268
46528.0 101330.0 35.2606
48942.0 101330.0 35.7576
51192.0 101330.0 36.2483
53703.0 101330.0 36.7453
56144.0 101330.0 37.2013
58781.0 101330.0 37.6211
61430.0 101330.0 38.0035
63953.0 101330.0 38.3912
66517.0 101330.0 38.7138
69142.0 101330.0 39.0461
71669.0 101330.0 39.366
74294.0 101330.0 39.6846
76841.0 101330.0 39.9523
79401.0 101330.0 40.2039
81818.0 101330.0 40.46
84345.0 101330.0 40.7134
86872.0 101330.0 41.0074
89383.0 101330.0 41.3166
91593.0 101330.0 41.9582
91967.0 101330.0 45.8196
91983.0 101330.0 49.5137
91991.0 101330.0 53.1989
91991.0 101330.0 56.8707
91999.0 101330.0 60.489
92004.0 101330.0 64.0849
92004.0 101330.0 67.73
91995.0 101330.0 71.384

loop_
_desorp_pressure
_desorp_p0
_desorp_loading
91645.0 101330.0 67.3106
91544.0 101330.0 63.2551
91405.0 101330.0 59.4718
91247.0 101330.0 56.0855
90563.0 101330.0 54.2384
89057.0 101330.0 50.5532
88235.0 101330.0 48.3671
85834.0 101330.0 45.5787
83088.0 101330.0 42.2397
80211.0 101330.0 41.5731
77749.0 101330.0 41.4353
75213.0 101330.0 41.305
72686.0 101330.0 41.1631
70070.0 101330.0 41.0364
67530.0 101330.0 40.9115
64894 101330.0 40.7839
62366.0 101330.0 40.6491
59843.0 101330.0 40.5247
57508.0 101330.0 40.3962
54883.0 101330.0 40.2525
52160.0 101330.0 40.0946
49926.0 101330.0 39.9706
47407.0 101330.0 39.826
44978.0 101330.0 39.6649
42467.0 101330.0 39.4914
39969.0 101330.0 39.2228
37511.0 101330.0 39.0073
34996.0 101330.0 38.7932
32465 101330.0 38.5799
29942.0 101330.0 38.3301
27415.0 101330.0 38.053
25022.0 101330.0 37.7349
19907.0 101330.0 36.7659
17502.0 101330.0 36.3594
14938.0 101330.0 35.133
12590.0 101330.0 32.9664
11821.0 101330.0 30.265
11471.0 101330.0 27.8563
11105.0 101330.0 25.6161
10409.0 101330.0 23.7651
9733.3 101330.0 21.8074
9025.3 101330.0 21.3938
8207.3 101330.0 20.3984
7511.5 101330.0 20.079
6738.3 101330.0 19.6417
4858.2 101330.0 18.4269
4182.7 101330.0 17.904
2091.0 101330.0 16.4527
1370.6 101330.0 15.6737
483.79 101330.0 13.3992
257.59 101330.0 12.158
112.57 101330.0 9.92505
53.996 101330.0 7.68404
24.599 101330.0 5.60543